!freq-unit  param-type  data-format  keyword  impedance-ohms
# GHZ           S          RI           R         50
!-----------------------------------------------------------------------------
!Freq          ReS11        ImS11        ReS21        ImS21        ReS12        ImS12        ReS22        ImS22
0.5          -0.0033047   -0.0024527   0.59592      -0.80067     0.59592      -0.80067     -0.0033047   -0.0024527   
0.51         -0.0033482   -0.0023896   0.58086      -0.81163     0.58086      -0.81163     -0.0033482   -0.0023896   
0.52         -0.0033879   -0.0023239   0.56559      -0.82232     0.56559      -0.82232     -0.0033879   -0.0023239   
0.53         -0.0034238   -0.002256    0.55013      -0.83271     0.55013      -0.83271     -0.0034238   -0.002256    
0.54         -0.0034558   -0.0021858   0.53447      -0.84282     0.53447      -0.84282     -0.0034558   -0.0021858   
0.55         -0.0034839   -0.0021138   0.51863      -0.85264     0.51863      -0.85264     -0.0034839   -0.0021138   
0.56         -0.003508    -0.0020399   0.5026       -0.86215     0.5026       -0.86215     -0.003508    -0.0020399   
0.57         -0.003528    -0.0019645   0.4864       -0.87137     0.4864       -0.87137     -0.003528    -0.0019645   
0.58         -0.0035439   -0.0018877   0.47003      -0.88029     0.47003      -0.88029     -0.0035439   -0.0018877   
0.59         -0.0035556   -0.0018098   0.4535       -0.88889     0.4535       -0.88889     -0.0035556   -0.0018098   
0.6          -0.0035633   -0.0017308   0.4368       -0.89719     0.4368       -0.89719     -0.0035633   -0.0017308   
0.61         -0.0035668   -0.0016511   0.41995      -0.90518     0.41995      -0.90518     -0.0035668   -0.0016511   
0.62         -0.0035661   -0.0015707   0.40296      -0.91285     0.40296      -0.91285     -0.0035661   -0.0015707   
0.63         -0.0035613   -0.00149     0.38582      -0.9202      0.38582      -0.9202      -0.0035613   -0.00149     
0.64         -0.0035524   -0.001409    0.36854      -0.92723     0.36854      -0.92723     -0.0035524   -0.001409    
0.65         -0.0035394   -0.001328    0.35114      -0.93394     0.35114      -0.93394     -0.0035394   -0.001328    
0.66         -0.0035223   -0.0012472   0.33361      -0.94032     0.33361      -0.94032     -0.0035223   -0.0012472   
0.67         -0.0035011   -0.0011667   0.31597      -0.94637     0.31597      -0.94637     -0.0035011   -0.0011667   
0.68         -0.003476    -0.0010868   0.29821      -0.95209     0.29821      -0.95209     -0.003476    -0.0010868   
0.69         -0.003447    -0.0010076   0.28035      -0.95748     0.28035      -0.95748     -0.003447    -0.0010076   
0.7          -0.0034141   -0.00092922  0.26239      -0.96254     0.26239      -0.96254     -0.0034141   -0.00092922  
0.71         -0.0033775   -0.00085192  0.24434      -0.96726     0.24434      -0.96726     -0.0033775   -0.00085192  
0.72         -0.0033371   -0.00077584  0.2262       -0.97164     0.2262       -0.97164     -0.0033371   -0.00077584  
0.73         -0.0032931   -0.00070115  0.20798      -0.97568     0.20798      -0.97568     -0.0032931   -0.00070115  
0.74         -0.0032456   -0.000628    0.18968      -0.97938     0.18968      -0.97938     -0.0032456   -0.000628    
0.75         -0.0031947   -0.00055654  0.17132      -0.98274     0.17132      -0.98274     -0.0031947   -0.00055654  
0.76         -0.0031404   -0.00048693  0.1529       -0.98575     0.1529       -0.98575     -0.0031404   -0.00048693  
0.77         -0.0030829   -0.0004193   0.13442      -0.98842     0.13442      -0.98842     -0.0030829   -0.0004193   
0.78         -0.0030224   -0.00035379  0.11589      -0.99074     0.11589      -0.99074     -0.0030224   -0.00035379  
0.79         -0.0029589   -0.00029053  0.097327     -0.99272     0.097327     -0.99272     -0.0029589   -0.00029053  
0.8          -0.0028925   -0.00022964  0.078724     -0.99435     0.078724     -0.99435     -0.0028925   -0.00022964  
0.81         -0.0028234   -0.00017124  0.060093     -0.99563     0.060093     -0.99563     -0.0028234   -0.00017124  
0.82         -0.0027518   -0.00011544  0.041439     -0.99656     0.041439     -0.99656     -0.0027518   -0.00011544  
0.83         -0.0026778   -6.2347e-05  0.02277      -0.99714     0.02277      -0.99714     -0.0026778   -6.2347e-05  
0.84         -0.0026015   -1.2051e-05  0.0040911    -0.99737     0.0040911    -0.99737     -0.0026015   -1.2051e-05  
0.85         -0.0025231   3.5357e-05   -0.01459     -0.99726     -0.01459     -0.99726     -0.0025231   3.5357e-05   
0.86         -0.0024427   7.9794e-05   -0.033267    -0.99679     -0.033267    -0.99679     -0.0024427   7.9794e-05   
0.87         -0.0023605   0.00012119   -0.051934    -0.99597     -0.051934    -0.99597     -0.0023605   0.00012119   
0.88         -0.0022767   0.00015947   -0.070583    -0.9948      -0.070583    -0.9948      -0.0022767   0.00015947   
0.89         -0.0021914   0.00019459   -0.089209    -0.99329     -0.089209    -0.99329     -0.0021914   0.00019459   
0.9          -0.0021048   0.00022649   -0.10781     -0.99142     -0.10781     -0.99142     -0.0021048   0.00022649   
0.91         -0.002017    0.00025512   -0.12636     -0.98921     -0.12636     -0.98921     -0.002017    0.00025512   
0.92         -0.0019282   0.00028046   -0.14488     -0.98665     -0.14488     -0.98665     -0.0019282   0.00028046   
0.93         -0.0018386   0.00030247   -0.16335     -0.98374     -0.16335     -0.98374     -0.0018386   0.00030247   
0.94         -0.0017484   0.00032114   -0.18176     -0.98049     -0.18176     -0.98049     -0.0017484   0.00032114   
0.95         -0.0016577   0.00033646   -0.2001      -0.97689     -0.2001      -0.97689     -0.0016577   0.00033646   
0.96         -0.0015667   0.00034842   -0.21838     -0.97295     -0.21838     -0.97295     -0.0015667   0.00034842   
0.97         -0.0014755   0.00035703   -0.23658     -0.96866     -0.23658     -0.96866     -0.0014755   0.00035703   
0.98         -0.0013844   0.0003623    -0.2547      -0.96404     -0.2547      -0.96404     -0.0013844   0.0003623    
0.99         -0.0012935   0.00036424   -0.27274     -0.95907     -0.27274     -0.95907     -0.0012935   0.00036424   
1            -0.0012029   0.0003629    -0.29067     -0.95377     -0.29067     -0.95377     -0.0012029   0.0003629    
1.01         -0.0011129   0.00035831   -0.30851     -0.94813     -0.30851     -0.94813     -0.0011129   0.00035831   
1.02         -0.0010235   0.0003505    -0.32624     -0.94216     -0.32624     -0.94216     -0.0010235   0.0003505    
1.03         -0.00093498  0.00033953   -0.34385     -0.93585     -0.34385     -0.93585     -0.00093498  0.00033953   
1.04         -0.00084745  0.00032546   -0.36135     -0.92922     -0.36135     -0.92922     -0.00084745  0.00032546   
1.05         -0.00076107  0.00030835   -0.37872     -0.92226     -0.37872     -0.92226     -0.00076107  0.00030835   
1.06         -0.00067598  0.00028828   -0.39595     -0.91497     -0.39595     -0.91497     -0.00067598  0.00028828   
1.07         -0.00059233  0.00026533   -0.41305     -0.90736     -0.41305     -0.90736     -0.00059233  0.00026533   
1.08         -0.00051027  0.00023957   -0.43        -0.89943     -0.43        -0.89943     -0.00051027  0.00023957   
1.09         -0.00042992  0.0002111    -0.44681     -0.89118     -0.44681     -0.89118     -0.00042992  0.0002111    
1.1          -0.00035141  0.00018003   -0.46345     -0.88262     -0.46345     -0.88262     -0.00035141  0.00018003   
1.11         -0.00027488  0.00014645   -0.47994     -0.87374     -0.47994     -0.87374     -0.00027488  0.00014645   
1.12         -0.00020043  0.00011048   -0.49625     -0.86456     -0.49625     -0.86456     -0.00020043  0.00011048   
1.13         -0.0001282   7.2224e-05   -0.5124      -0.85507     -0.5124      -0.85507     -0.0001282   7.2224e-05   
1.14         -5.8281e-05  3.181e-05    -0.52836     -0.84528     -0.52836     -0.84528     -5.8281e-05  3.181e-05    
1.15         9.2187e-06   -1.0638e-05  -0.54413     -0.83519     -0.54413     -0.83519     9.2187e-06   -1.0638e-05  
1.16         7.4202e-05   -5.499e-05   -0.55972     -0.8248      -0.55972     -0.8248      7.4202e-05   -5.499e-05   
1.17         0.00013658   -0.00010111  -0.57511     -0.81413     -0.57511     -0.81413     0.00013658   -0.00010111  
1.18         0.00019627   -0.00014886  -0.5903      -0.80316     -0.5903      -0.80316     0.00019627   -0.00014886  
1.19         0.00025319   -0.00019811  -0.60528     -0.79191     -0.60528     -0.79191     0.00025319   -0.00019811  
1.2          0.00030727   -0.00024869  -0.62004     -0.78038     -0.62004     -0.78038     0.00030727   -0.00024869  
1.21         0.00035845   -0.00030047  -0.63459     -0.76857     -0.63459     -0.76857     0.00035845   -0.00030047  
1.22         0.00040668   -0.0003533   -0.64892     -0.75649     -0.64892     -0.75649     0.00040668   -0.0003533   
1.23         0.0004519    -0.00040701  -0.66301     -0.74415     -0.66301     -0.74415     0.0004519    -0.00040701  
1.24         0.00049408   -0.00046146  -0.67688     -0.73154     -0.67688     -0.73154     0.00049408   -0.00046146  
1.25         0.00053318   -0.00051649  -0.6905      -0.71867     -0.6905      -0.71867     0.00053318   -0.00051649  
1.26         0.00056917   -0.00057193  -0.70388     -0.70554     -0.70388     -0.70554     0.00056917   -0.00057193  
1.27         0.00060205   -0.00062763  -0.71702     -0.69216     -0.71702     -0.69216     0.00060205   -0.00062763  
1.28         0.00063179   -0.00068342  -0.7299      -0.67854     -0.7299      -0.67854     0.00063179   -0.00068342  
1.29         0.00065839   -0.00073916  -0.74252     -0.66468     -0.74252     -0.66468     0.00065839   -0.00073916  
1.3          0.00068186   -0.00079466  -0.75488     -0.65058     -0.75488     -0.65058     0.00068186   -0.00079466  
1.31         0.00070222   -0.00084978  -0.76698     -0.63625     -0.76698     -0.63625     0.00070222   -0.00084978  
1.32         0.00071947   -0.00090436  -0.7788      -0.62169     -0.7788      -0.62169     0.00071947   -0.00090436  
1.33         0.00073366   -0.00095823  -0.79035     -0.60691     -0.79035     -0.60691     0.00073366   -0.00095823  
1.34         0.00074481   -0.0010112   -0.80162     -0.59192     -0.80162     -0.59192     0.00074481   -0.0010112   
1.35         0.00075298   -0.0010632   -0.8126      -0.57671     -0.8126      -0.57671     0.00075298   -0.0010632   
1.36         0.0007582    -0.001114    -0.8233      -0.5613      -0.8233      -0.5613      0.0007582    -0.001114    
1.37         0.00076054   -0.0011635   -0.83371     -0.54569     -0.83371     -0.54569     0.00076054   -0.0011635   
1.38         0.00076007   -0.0012116   -0.84382     -0.52989     -0.84382     -0.52989     0.00076007   -0.0012116   
1.39         0.00075685   -0.001258    -0.85364     -0.5139      -0.85364     -0.5139      0.00075685   -0.001258    
1.4          0.00075096   -0.0013026   -0.86315     -0.49772     -0.86315     -0.49772     0.00075096   -0.0013026   
1.41         0.0007425    -0.0013454   -0.87236     -0.48137     -0.87236     -0.48137     0.0007425    -0.0013454   
1.42         0.00073155   -0.0013861   -0.88126     -0.46484     -0.88126     -0.46484     0.00073155   -0.0013861   
1.43         0.00071821   -0.0014247   -0.88984     -0.44815     -0.88984     -0.44815     0.00071821   -0.0014247   
1.44         0.00070259   -0.0014609   -0.89811     -0.4313      -0.89811     -0.4313      0.00070259   -0.0014609   
1.45         0.0006848    -0.0014948   -0.90606     -0.41429     -0.90606     -0.41429     0.0006848    -0.0014948   
1.46         0.00066496   -0.0015262   -0.91369     -0.39713     -0.91369     -0.39713     0.00066496   -0.0015262   
1.47         0.00064319   -0.0015549   -0.921       -0.37984     -0.921       -0.37984     0.00064319   -0.0015549   
1.48         0.00061962   -0.0015809   -0.92798     -0.3624      -0.92798     -0.3624      0.00061962   -0.0015809   
1.49         0.00059438   -0.0016041   -0.93463     -0.34484     -0.93463     -0.34484     0.00059438   -0.0016041   
1.5          0.00056761   -0.0016243   -0.94095     -0.32715     -0.94095     -0.32715     0.00056761   -0.0016243   
1.51         0.00053945   -0.0016416   -0.94694     -0.30935     -0.94694     -0.30935     0.00053945   -0.0016416   
1.52         0.00051004   -0.0016557   -0.95259     -0.29144     -0.95259     -0.29144     0.00051004   -0.0016557   
1.53         0.00047955   -0.0016667   -0.9579      -0.27341     -0.9579      -0.27341     0.00047955   -0.0016667   
1.54         0.00044812   -0.0016745   -0.96287     -0.2553      -0.96287     -0.2553      0.00044812   -0.0016745   
1.55         0.00041591   -0.0016791   -0.96749     -0.23709     -0.96749     -0.23709     0.00041591   -0.0016791   
1.56         0.00038308   -0.0016803   -0.97178     -0.21879     -0.97178     -0.21879     0.00038308   -0.0016803   
1.57         0.00034979   -0.0016781   -0.97572     -0.20041     -0.97572     -0.20041     0.00034979   -0.0016781   
1.58         0.00031621   -0.0016725   -0.97931     -0.18197     -0.97931     -0.18197     0.00031621   -0.0016725   
1.59         0.00028251   -0.0016635   -0.98255     -0.16345     -0.98255     -0.16345     0.00028251   -0.0016635   
1.6          0.00024885   -0.0016511   -0.98544     -0.14488     -0.98544     -0.14488     0.00024885   -0.0016511   
1.61         0.00021541   -0.0016352   -0.98799     -0.12625     -0.98799     -0.12625     0.00021541   -0.0016352   
1.62         0.00018235   -0.0016158   -0.99018     -0.10758     -0.99018     -0.10758     0.00018235   -0.0016158   
1.63         0.00014985   -0.001593    -0.99202     -0.088869    -0.99202     -0.088869    0.00014985   -0.001593    
1.64         0.00011808   -0.0015668   -0.9935      -0.070124    -0.9935      -0.070124    0.00011808   -0.0015668   
1.65         8.7202e-05   -0.0015371   -0.99463     -0.051353    -0.99463     -0.051353    8.7202e-05   -0.0015371   
1.66         5.7396e-05   -0.0015041   -0.99541     -0.032563    -0.99541     -0.032563    5.7396e-05   -0.0015041   
1.67         2.883e-05    -0.0014677   -0.99583     -0.013759    -0.99583     -0.013759    2.883e-05    -0.0014677   
1.68         1.6705e-06   -0.0014279   -0.9959      0.0050504    -0.9959      0.0050504    1.6705e-06   -0.0014279   
1.69         -2.3915e-05  -0.001385    -0.99561     0.02386      -0.99561     0.02386      -2.3915e-05  -0.001385    
1.7          -4.7762e-05  -0.0013388   -0.99496     0.042661     -0.99496     0.042661     -4.7762e-05  -0.0013388   
1.71         -6.9708e-05  -0.0012895   -0.99396     0.061449     -0.99396     0.061449     -6.9708e-05  -0.0012895   
1.72         -8.9594e-05  -0.0012372   -0.99261     0.080217     -0.99261     0.080217     -8.9594e-05  -0.0012372   
1.73         -0.00010726  -0.0011819   -0.9909      0.098956     -0.9909      0.098956     -0.00010726  -0.0011819   
1.74         -0.00012257  -0.0011237   -0.98884     0.11766      -0.98884     0.11766      -0.00012257  -0.0011237   
1.75         -0.00013535  -0.0010628   -0.98642     0.13633      -0.98642     0.13633      -0.00013535  -0.0010628   
1.76         -0.00014547  -0.00099917  -0.98365     0.15494      -0.98365     0.15494      -0.00014547  -0.00099917  
1.77         -0.00015279  -0.00093301  -0.98053     0.17351      -0.98053     0.17351      -0.00015279  -0.00093301  
1.78         -0.00015717  -0.00086442  -0.97706     0.19201      -0.97706     0.19201      -0.00015717  -0.00086442  
1.79         -0.00015848  -0.00079353  -0.97324     0.21045      -0.97324     0.21045      -0.00015848  -0.00079353  
1.8          -0.0001566   -0.00072046  -0.96907     0.22881      -0.96907     0.22881      -0.0001566   -0.00072046  
1.81         -0.00015141  -0.00064537  -0.96456     0.24709      -0.96456     0.24709      -0.00015141  -0.00064537  
1.82         -0.00014279  -0.00056838  -0.95969     0.26528      -0.95969     0.26528      -0.00014279  -0.00056838  
1.83         -0.00013064  -0.00048966  -0.95449     0.28338      -0.95449     0.28338      -0.00013064  -0.00048966  
1.84         -0.00011486  -0.00040936  -0.94894     0.30138      -0.94894     0.30138      -0.00011486  -0.00040936  
1.85         -9.5344e-05  -0.00032765  -0.94306     0.31927      -0.94306     0.31927      -9.5344e-05  -0.00032765  
1.86         -7.202e-05   -0.00024468  -0.93683     0.33705      -0.93683     0.33705      -7.202e-05   -0.00024468  
1.87         -4.4804e-05  -0.00016063  -0.93027     0.35472      -0.93027     0.35472      -4.4804e-05  -0.00016063  
1.88         -1.3624e-05  -7.567e-05   -0.92338     0.37225      -0.92338     0.37225      -1.3624e-05  -7.567e-05   
1.89         2.1584e-05   1.0014e-05   -0.91615     0.38965      -0.91615     0.38965      2.1584e-05   1.0014e-05   
1.9          6.0877e-05   9.6243e-05   -0.9086      0.40692      -0.9086      0.40692      6.0877e-05   9.6243e-05   
1.91         0.0001043    0.00018283   -0.90072     0.42404      -0.90072     0.42404      0.0001043    0.00018283   
1.92         0.0001519    0.00026959   -0.89252     0.44101      -0.89252     0.44101      0.0001519    0.00026959   
1.93         0.0002037    0.00035633   -0.884       0.45782      -0.884       0.45782      0.0002037    0.00035633   
1.94         0.00025972   0.00044286   -0.87515     0.47447      -0.87515     0.47447      0.00025972   0.00044286   
1.95         0.00031999   0.00052899   -0.866       0.49095      -0.866       0.49095      0.00031999   0.00052899   
1.96         0.0003845    0.00061451   -0.85653     0.50725      -0.85653     0.50725      0.0003845    0.00061451   
1.97         0.00045326   0.00069923   -0.84676     0.52337      -0.84676     0.52337      0.00045326   0.00069923   
1.98         0.00052625   0.00078295   -0.83668     0.53931      -0.83668     0.53931      0.00052625   0.00078295   
1.99         0.00060345   0.00086548   -0.8263      0.55506      -0.8263      0.55506      0.00060345   0.00086548   
2            0.00068483   0.00094661   -0.81562     0.5706       -0.81562     0.5706       0.00068483   0.00094661   
2.01         0.00077036   0.0010262    -0.80465     0.58594      -0.80465     0.58594      0.00077036   0.0010262    
2.02         0.00085997   0.0011039    -0.79339     0.60108      -0.79339     0.60108      0.00085997   0.0011039    
2.03         0.00095363   0.0011797    -0.78184     0.616        -0.78184     0.616        0.00095363   0.0011797    
2.04         0.0010513    0.0012533    -0.77002     0.63069      -0.77002     0.63069      0.0010513    0.0012533    
2.05         0.0011528    0.0013245    -0.75791     0.64517      -0.75791     0.64517      0.0011528    0.0013245    
2.06         0.0012581    0.0013932    -0.74553     0.65941      -0.74553     0.65941      0.0012581    0.0013932    
2.07         0.0013672    0.0014592    -0.73289     0.67341      -0.73289     0.67341      0.0013672    0.0014592    
2.08         0.0014799    0.0015222    -0.71997     0.68718      -0.71997     0.68718      0.0014799    0.0015222    
2.09         0.0015961    0.0015822    -0.7068      0.7007       -0.7068      0.7007       0.0015961    0.0015822    
2.1          0.0017157    0.0016388    -0.69338     0.71396      -0.69338     0.71396      0.0017157    0.0016388    
2.11         0.0018386    0.0016921    -0.6797      0.72697      -0.6797      0.72697      0.0018386    0.0016921    
2.12         0.0019646    0.0017417    -0.66578     0.73972      -0.66578     0.73972      0.0019646    0.0017417    
2.13         0.0020937    0.0017875    -0.65162     0.75221      -0.65162     0.75221      0.0020937    0.0017875    
2.14         0.0022255    0.0018295    -0.63722     0.76442      -0.63722     0.76442      0.0022255    0.0018295    
2.15         0.0023601    0.0018674    -0.62259     0.77637      -0.62259     0.77637      0.0023601    0.0018674    
2.16         0.0024972    0.001901     -0.60773     0.78803      -0.60773     0.78803      0.0024972    0.001901     
2.17         0.0026367    0.0019303    -0.59266     0.79941      -0.59266     0.79941      0.0026367    0.0019303    
2.18         0.0027784    0.0019552    -0.57737     0.8105       -0.57737     0.8105       0.0027784    0.0019552    
2.19         0.0029221    0.0019754    -0.56188     0.8213       -0.56188     0.8213       0.0029221    0.0019754    
2.2          0.0030675    0.001991     -0.54618     0.8318       -0.54618     0.8318       0.0030675    0.001991     
2.21         0.0032147    0.0020017    -0.53028     0.84201      -0.53028     0.84201      0.0032147    0.0020017    
2.22         0.0033632    0.0020076    -0.51419     0.85191      -0.51419     0.85191      0.0033632    0.0020076    
2.23         0.003513     0.0020084    -0.49791     0.86151      -0.49791     0.86151      0.003513     0.0020084    
2.24         0.0036638    0.0020041    -0.48145     0.87079      -0.48145     0.87079      0.0036638    0.0020041    
2.25         0.0038153    0.0019947    -0.46482     0.87977      -0.46482     0.87977      0.0038153    0.0019947    
2.26         0.0039675    0.0019801    -0.44802     0.88842      -0.44802     0.88842      0.0039675    0.0019801    
2.27         0.00412      0.0019602    -0.43106     0.89676      -0.43106     0.89676      0.00412      0.0019602    
2.28         0.0042727    0.001935     -0.41393     0.90477      -0.41393     0.90477      0.0042727    0.001935     
2.29         0.0044253    0.0019044    -0.39666     0.91246      -0.39666     0.91246      0.0044253    0.0019044    
2.3          0.0045775    0.0018685    -0.37925     0.91982      -0.37925     0.91982      0.0045775    0.0018685    
2.31         0.0047293    0.0018271    -0.36169     0.92684      -0.36169     0.92684      0.0047293    0.0018271    
2.32         0.0048802    0.0017804    -0.34401     0.93354      -0.34401     0.93354      0.0048802    0.0017804    
2.33         0.0050301    0.0017282    -0.3262      0.93989      -0.3262      0.93989      0.0050301    0.0017282    
2.34         0.0051788    0.0016707    -0.30827     0.94591      -0.30827     0.94591      0.0051788    0.0016707    
2.35         0.005326     0.0016078    -0.29023     0.95158      -0.29023     0.95158      0.005326     0.0016078    
2.36         0.0054714    0.0015396    -0.27208     0.95691      -0.27208     0.95691      0.0054714    0.0015396    
2.37         0.0056149    0.0014661    -0.25383     0.9619       -0.25383     0.9619       0.0056149    0.0014661    
2.38         0.0057563    0.0013874    -0.23549     0.96654      -0.23549     0.96654      0.0057563    0.0013874    
2.39         0.0058952    0.0013035    -0.21706     0.97082      -0.21706     0.97082      0.0058952    0.0013035    
2.4          0.0060314    0.0012146    -0.19856     0.97476      -0.19856     0.97476      0.0060314    0.0012146    
2.41         0.0061648    0.0011206    -0.17998     0.97835      -0.17998     0.97835      0.0061648    0.0011206    
2.42         0.0062951    0.0010217    -0.16133     0.98158      -0.16133     0.98158      0.0062951    0.0010217    
2.43         0.0064221    0.00091802   -0.14262     0.98445      -0.14262     0.98445      0.0064221    0.00091802   
2.44         0.0065455    0.00080964   -0.12387     0.98697      -0.12387     0.98697      0.0065455    0.00080964   
2.45         0.0066652    0.0006967    -0.10506     0.98914      -0.10506     0.98914      0.0066652    0.0006967    
2.46         0.0067809    0.00057932   -0.086218    0.99094      -0.086218    0.99094      0.0067809    0.00057932   
2.47         0.0068924    0.00045765   -0.067342    0.99239      -0.067342    0.99239      0.0068924    0.00045765   
2.48         0.0069996    0.00033185   -0.04844     0.99347      -0.04844     0.99347      0.0069996    0.00033185   
2.49         0.0071022    0.00020206   -0.02952     0.9942       -0.02952     0.9942       0.0071022    0.00020206   
2.5          0.0072001    6.8472e-05   -0.010587    0.99457      -0.010587    0.99457      0.0072001    6.8472e-05   
2.51         0.007293     -6.8749e-05  0.0083502    0.99457      0.0083502    0.99457      0.007293     -6.8749e-05  
2.52         0.0073809    -0.00020941  0.027286     0.99422      0.027286     0.99422      0.0073809    -0.00020941  
2.53         0.0074635    -0.00035333  0.046213     0.9935       0.046213     0.9935       0.0074635    -0.00035333  
2.54         0.0075406    -0.00050029  0.065124     0.99243      0.065124     0.99243      0.0075406    -0.00050029  
2.55         0.0076122    -0.00065008  0.084013     0.99099      0.084013     0.99099      0.0076122    -0.00065008  
2.56         0.0076781    -0.0008025   0.10287      0.9892       0.10287      0.9892       0.0076781    -0.0008025   
2.57         0.0077381    -0.00095731  0.1217       0.98704      0.1217       0.98704      0.0077381    -0.00095731  
2.58         0.0077921    -0.0011143   0.14048      0.98453      0.14048      0.98453      0.0077921    -0.0011143   
2.59         0.0078401    -0.0012732   0.15921      0.98166      0.15921      0.98166      0.0078401    -0.0012732   
2.6          0.0078818    -0.0014338   0.17788      0.97843      0.17788      0.97843      0.0078818    -0.0014338   
2.61         0.0079172    -0.0015959   0.19649      0.97485      0.19649      0.97485      0.0079172    -0.0015959   
2.62         0.0079463    -0.0017591   0.21503      0.97091      0.21503      0.97091      0.0079463    -0.0017591   
2.63         0.0079689    -0.0019233   0.2335       0.96662      0.2335       0.96662      0.0079689    -0.0019233   
2.64         0.007985     -0.0020881   0.25188      0.96198      0.25188      0.96198      0.007985     -0.0020881   
2.65         0.0079945    -0.0022534   0.27017      0.95699      0.27017      0.95699      0.0079945    -0.0022534   
2.66         0.0079974    -0.0024188   0.28836      0.95165      0.28836      0.95165      0.0079974    -0.0024188   
2.67         0.0079936    -0.0025841   0.30645      0.94597      0.30645      0.94597      0.0079936    -0.0025841   
2.68         0.0079831    -0.002749    0.32443      0.93994      0.32443      0.93994      0.0079831    -0.002749    
2.69         0.007966     -0.0029132   0.34229      0.93357      0.34229      0.93357      0.007966     -0.0029132   
2.7          0.0079421    -0.0030765   0.36003      0.92685      0.36003      0.92685      0.0079421    -0.0030765   
2.71         0.0079116    -0.0032385   0.37763      0.9198       0.37763      0.9198       0.0079116    -0.0032385   
2.72         0.0078744    -0.0033991   0.39511      0.91242      0.39511      0.91242      0.0078744    -0.0033991   
2.73         0.0078306    -0.0035579   0.41244      0.9047       0.41244      0.9047       0.0078306    -0.0035579   
2.74         0.0077803    -0.0037146   0.42962      0.89665      0.42962      0.89665      0.0077803    -0.0037146   
2.75         0.0077234    -0.0038691   0.44664      0.88828      0.44664      0.88828      0.0077234    -0.0038691   
2.76         0.0076601    -0.0040209   0.46351      0.87958      0.46351      0.87958      0.0076601    -0.0040209   
2.77         0.0075904    -0.0041699   0.4802       0.87056      0.4802       0.87056      0.0075904    -0.0041699   
2.78         0.0075145    -0.0043157   0.49672      0.86123      0.49672      0.86123      0.0075145    -0.0043157   
2.79         0.0074324    -0.0044582   0.51307      0.85157      0.51307      0.85157      0.0074324    -0.0044582   
2.8          0.0073442    -0.004597    0.52922      0.84161      0.52922      0.84161      0.0073442    -0.004597    
2.81         0.0072502    -0.0047318   0.54519      0.83134      0.54519      0.83134      0.0072502    -0.0047318   
2.82         0.0071503    -0.0048625   0.56095      0.82077      0.56095      0.82077      0.0071503    -0.0048625   
2.83         0.0070448    -0.0049888   0.57652      0.8099       0.57652      0.8099       0.0070448    -0.0049888   
2.84         0.0069339    -0.0051105   0.59187      0.79873      0.59187      0.79873      0.0069339    -0.0051105   
2.85         0.0068176    -0.0052272   0.60701      0.78726      0.60701      0.78726      0.0068176    -0.0052272   
2.86         0.0066963    -0.0053389   0.62193      0.77552      0.62193      0.77552      0.0066963    -0.0053389   
2.87         0.00657      -0.0054452   0.63662      0.76348      0.63662      0.76348      0.00657      -0.0054452   
2.88         0.0064389    -0.0055459   0.65108      0.75117      0.65108      0.75117      0.0064389    -0.0055459   
2.89         0.0063034    -0.0056408   0.66531      0.73858      0.66531      0.73858      0.0063034    -0.0056408   
2.9          0.0061635    -0.0057298   0.67929      0.72572      0.67929      0.72572      0.0061635    -0.0057298   
2.91         0.0060196    -0.0058127   0.69303      0.7126       0.69303      0.7126       0.0060196    -0.0058127   
2.92         0.0058718    -0.0058892   0.70651      0.69921      0.70651      0.69921      0.0058718    -0.0058892   
2.93         0.0057205    -0.0059592   0.71974      0.68557      0.71974      0.68557      0.0057205    -0.0059592   
2.94         0.0055658    -0.0060225   0.7327       0.67168      0.7327       0.67168      0.0055658    -0.0060225   
2.95         0.005408     -0.006079    0.7454       0.65754      0.7454       0.65754      0.005408     -0.006079    
2.96         0.0052475    -0.0061285   0.75782      0.64316      0.75782      0.64316      0.0052475    -0.0061285   
2.97         0.0050843    -0.0061709   0.76997      0.62854      0.76997      0.62854      0.0050843    -0.0061709   
2.98         0.004919     -0.0062061   0.78184      0.61369      0.78184      0.61369      0.004919     -0.0062061   
2.99         0.0047516    -0.006234    0.79342      0.59862      0.79342      0.59862      0.0047516    -0.006234    
3            0.0045826    -0.0062544   0.80472      0.58333      0.80472      0.58333      0.0045826    -0.0062544   
