!freq-unit  param-type  data-format  keyword  impedance-ohms
# GHZ           S          RI           R         50
!-----------------------------------------------------------------------------
!Freq          ReS11        ImS11        ReS21        ImS21        ReS12        ImS12        ReS22        ImS22
0.5          -0.0032931   -0.001388    0.38791      -0.9191      0.38791      -0.9191      -0.0032931   -0.001388    
0.51         -0.0032804   -0.0012931   0.3662       -0.92793     0.3662       -0.92793     -0.0032804   -0.0012931   
0.52         -0.0032612   -0.0011982   0.3443       -0.93625     0.3443       -0.93625     -0.0032612   -0.0011982   
0.53         -0.0032355   -0.0011036   0.3222       -0.94405     0.3222       -0.94405     -0.0032355   -0.0011036   
0.54         -0.0032034   -0.0010096   0.29992      -0.95133     0.29992      -0.95133     -0.0032034   -0.0010096   
0.55         -0.003165    -0.00091672  0.27748      -0.95809     0.27748      -0.95809     -0.003165    -0.00091672  
0.56         -0.0031203   -0.00082521  0.25488      -0.96432     0.25488      -0.96432     -0.0031203   -0.00082521  
0.57         -0.0030695   -0.00073545  0.23214      -0.97002     0.23214      -0.97002     -0.0030695   -0.00073545  
0.58         -0.0030128   -0.00064777  0.20928      -0.97518     0.20928      -0.97518     -0.0030128   -0.00064777  
0.59         -0.0029501   -0.00056251  0.18629      -0.9798      0.18629      -0.9798      -0.0029501   -0.00056251  
0.6          -0.0028818   -0.00047999  0.1632       -0.98388     0.1632       -0.98388     -0.0028818   -0.00047999  
0.61         -0.0028081   -0.00040052  0.14002      -0.98742     0.14002      -0.98742     -0.0028081   -0.00040052  
0.62         -0.002729    -0.00032442  0.11676      -0.99041     0.11676      -0.99041     -0.002729    -0.00032442  
0.63         -0.0026448   -0.00025196  0.09344      -0.99286     0.09344      -0.99286     -0.0026448   -0.00025196  
0.64         -0.0025558   -0.00018342  0.070064     -0.99476     0.070064     -0.99476     -0.0025558   -0.00018342  
0.65         -0.0024621   -0.00011907  0.046647     -0.9961      0.046647     -0.9961      -0.0024621   -0.00011907  
0.66         -0.0023641   -5.9151e-05  0.023203     -0.9969      0.023203     -0.9969      -0.0023641   -5.9151e-05  
0.67         -0.0022621   -3.9035e-06  -0.00025435  -0.99714     -0.00025435  -0.99714     -0.0022621   -3.9035e-06  
0.68         -0.0021562   4.6457e-05   -0.023713    -0.99683     -0.023713    -0.99683     -0.0021562   4.6457e-05   
0.69         -0.0020468   9.1729e-05   -0.04716     -0.99597     -0.04716     -0.99597     -0.0020468   9.1729e-05   
0.7          -0.0019342   0.00013172   -0.070581    -0.99456     -0.070581    -0.99456     -0.0019342   0.00013172   
0.71         -0.0018187   0.00016628   -0.093965    -0.9926      -0.093965    -0.9926      -0.0018187   0.00016628   
0.72         -0.0017006   0.00019524   -0.1173      -0.99009     -0.1173      -0.99009     -0.0017006   0.00019524   
0.73         -0.0015803   0.00021846   -0.14057     -0.98703     -0.14057     -0.98703     -0.0015803   0.00021846   
0.74         -0.001458    0.00023585   -0.16376     -0.98342     -0.16376     -0.98342     -0.001458    0.00023585   
0.75         -0.0013342   0.0002473    -0.18686     -0.97927     -0.18686     -0.97927     -0.0013342   0.0002473    
0.76         -0.0012091   0.00025272   -0.20986     -0.97457     -0.20986     -0.97457     -0.0012091   0.00025272   
0.77         -0.0010831   0.00025207   -0.23275     -0.96933     -0.23275     -0.96933     -0.0010831   0.00025207   
0.78         -0.0009565   0.00024531   -0.2555      -0.96356     -0.2555      -0.96356     -0.0009565   0.00024531   
0.79         -0.00082974  0.0002324    -0.27812     -0.95725     -0.27812     -0.95725     -0.00082974  0.0002324    
0.8          -0.00070311  0.00021335   -0.30058     -0.95041     -0.30058     -0.95041     -0.00070311  0.00021335   
0.81         -0.00057696  0.00018817   -0.32288     -0.94304     -0.32288     -0.94304     -0.00057696  0.00018817   
0.82         -0.00045164  0.0001569    -0.345       -0.93515     -0.345       -0.93515     -0.00045164  0.0001569    
0.83         -0.00032749  0.0001196    -0.36693     -0.92674     -0.36693     -0.92674     -0.00032749  0.0001196    
0.84         -0.00020484  7.6326e-05   -0.38866     -0.91781     -0.38866     -0.91781     -0.00020484  7.6326e-05   
0.85         -8.4032e-05  2.7176e-05   -0.41017     -0.90838     -0.41017     -0.90838     -8.4032e-05  2.7176e-05   
0.86         3.4615e-05   -2.7744e-05  -0.43146     -0.89843     -0.43146     -0.89843     3.4615e-05   -2.7744e-05  
0.87         0.00015078   -8.831e-05   -0.4525      -0.88799     -0.4525      -0.88799     0.00015078   -8.831e-05   
0.88         0.00026415   -0.00015438  -0.4733      -0.87706     -0.4733      -0.87706     0.00026415   -0.00015438  
0.89         0.00037442   -0.00022579  -0.49383     -0.86563     -0.49383     -0.86563     0.00037442   -0.00022579  
0.9          0.0004813    -0.00030238  -0.51409     -0.85373     -0.51409     -0.85373     0.0004813    -0.00030238  
0.91         0.00058451   -0.00038395  -0.53407     -0.84135     -0.53407     -0.84135     0.00058451   -0.00038395  
0.92         0.00068377   -0.0004703   -0.55375     -0.8285      -0.55375     -0.8285      0.00068377   -0.0004703   
0.93         0.00077882   -0.00056121  -0.57312     -0.81519     -0.57312     -0.81519     0.00077882   -0.00056121  
0.94         0.00086941   -0.00065645  -0.59218     -0.80142     -0.59218     -0.80142     0.00086941   -0.00065645  
0.95         0.00095531   -0.00075578  -0.6109      -0.78721     -0.6109      -0.78721     0.00095531   -0.00075578  
0.96         0.0010363    -0.00085893  -0.62929     -0.77256     -0.62929     -0.77256     0.0010363    -0.00085893  
0.97         0.0011122    -0.00096565  -0.64733     -0.75748     -0.64733     -0.75748     0.0011122    -0.00096565  
0.98         0.0011827    -0.0010757   -0.66501     -0.74197     -0.66501     -0.74197     0.0011827    -0.0010757   
0.99         0.0012478    -0.0011887   -0.68232     -0.72605     -0.68232     -0.72605     0.0012478    -0.0011887   
1            0.0013072    -0.0013044   -0.69925     -0.70973     -0.69925     -0.70973     0.0013072    -0.0013044   
1.01         0.0013609    -0.0014225   -0.71579     -0.69301     -0.71579     -0.69301     0.0013609    -0.0014225   
1.02         0.0014086    -0.0015427   -0.73193     -0.6759      -0.73193     -0.6759      0.0014086    -0.0015427   
1.03         0.0014503    -0.0016646   -0.74767     -0.65842     -0.74767     -0.65842     0.0014503    -0.0016646   
1.04         0.0014859    -0.001788    -0.76299     -0.64057     -0.76299     -0.64057     0.0014859    -0.001788    
1.05         0.0015152    -0.0019126   -0.77788     -0.62236     -0.77788     -0.62236     0.0015152    -0.0019126   
1.06         0.0015383    -0.0020379   -0.79235     -0.6038      -0.79235     -0.6038      0.0015383    -0.0020379   
1.07         0.0015552    -0.0021637   -0.80637     -0.5849      -0.80637     -0.5849      0.0015552    -0.0021637   
1.08         0.0015657    -0.0022897   -0.81994     -0.56568     -0.81994     -0.56568     0.0015657    -0.0022897   
1.09         0.0015698    -0.0024154   -0.83306     -0.54614     -0.83306     -0.54614     0.0015698    -0.0024154   
1.1          0.0015677    -0.0025406   -0.84571     -0.52629     -0.84571     -0.52629     0.0015677    -0.0025406   
1.11         0.0015593    -0.002665    -0.85789     -0.50615     -0.85789     -0.50615     0.0015593    -0.002665    
1.12         0.0015447    -0.0027881   -0.86959     -0.48572     -0.86959     -0.48572     0.0015447    -0.0027881   
1.13         0.0015239    -0.0029098   -0.8808      -0.46503     -0.8808      -0.46503     0.0015239    -0.0029098   
1.14         0.001497     -0.0030296   -0.89153     -0.44407     -0.89153     -0.44407     0.001497     -0.0030296   
1.15         0.0014641    -0.0031473   -0.90175     -0.42286     -0.90175     -0.42286     0.0014641    -0.0031473   
1.16         0.0014254    -0.0032625   -0.91148     -0.40142     -0.91148     -0.40142     0.0014254    -0.0032625   
1.17         0.001381     -0.003375    -0.92069     -0.37975     -0.92069     -0.37975     0.001381     -0.003375    
1.18         0.0013309    -0.0034845   -0.92939     -0.35786     -0.92939     -0.35786     0.0013309    -0.0034845   
1.19         0.0012754    -0.0035906   -0.93757     -0.33578     -0.93757     -0.33578     0.0012754    -0.0035906   
1.2          0.0012147    -0.0036931   -0.94523     -0.3135      -0.94523     -0.3135      0.0012147    -0.0036931   
1.21         0.001149     -0.0037918   -0.95236     -0.29105     -0.95236     -0.29105     0.001149     -0.0037918   
1.22         0.0010784    -0.0038864   -0.95896     -0.26844     -0.95896     -0.26844     0.0010784    -0.0038864   
1.23         0.0010031    -0.0039765   -0.96502     -0.24567     -0.96502     -0.24567     0.0010031    -0.0039765   
1.24         0.00092349   -0.0040622   -0.97054     -0.22277     -0.97054     -0.22277     0.00092349   -0.0040622   
1.25         0.0008397    -0.004143    -0.97552     -0.19973     -0.97552     -0.19973     0.0008397    -0.004143    
1.26         0.000752     -0.0042188   -0.97995     -0.17659     -0.97995     -0.17659     0.000752     -0.0042188   
1.27         0.00066066   -0.0042894   -0.98383     -0.15335     -0.98383     -0.15335     0.00066066   -0.0042894   
1.28         0.00056594   -0.0043547   -0.98716     -0.13001     -0.98716     -0.13001     0.00056594   -0.0043547   
1.29         0.00046813   -0.0044144   -0.98994     -0.10661     -0.98994     -0.10661     0.00046813   -0.0044144   
1.3          0.00036752   -0.0044685   -0.99217     -0.083141    -0.99217     -0.083141    0.00036752   -0.0044685   
1.31         0.00026439   -0.0045168   -0.99383     -0.059627    -0.99383     -0.059627    0.00026439   -0.0045168   
1.32         0.00015905   -0.0045592   -0.99494     -0.036077    -0.99494     -0.036077    0.00015905   -0.0045592   
1.33         5.18e-05     -0.0045956   -0.9955      -0.012506    -0.9955      -0.012506    5.18e-05     -0.0045956   
1.34         -5.7052e-05  -0.0046259   -0.99549     0.011073     -0.99549     0.011073     -5.7052e-05  -0.0046259   
1.35         -0.0001672   -0.0046502   -0.99493     0.034647     -0.99493     0.034647     -0.0001672   -0.0046502   
1.36         -0.00027832  -0.0046682   -0.99381     0.058204     -0.99381     0.058204     -0.00027832  -0.0046682   
1.37         -0.0003901   -0.00468     -0.99213     0.081728     -0.99213     0.081728     -0.0003901   -0.00468     
1.38         -0.00050224  -0.0046857   -0.98989     0.10521      -0.98989     0.10521      -0.00050224  -0.0046857   
1.39         -0.00061441  -0.0046851   -0.9871      0.12863      -0.9871      0.12863      -0.00061441  -0.0046851   
1.4          -0.00072631  -0.0046784   -0.98376     0.15198      -0.98376     0.15198      -0.00072631  -0.0046784   
1.41         -0.00083762  -0.0046655   -0.97986     0.17525      -0.97986     0.17525      -0.00083762  -0.0046655   
1.42         -0.00094804  -0.0046465   -0.97541     0.19842      -0.97541     0.19842      -0.00094804  -0.0046465   
1.43         -0.0010573   -0.0046215   -0.97041     0.22148      -0.97041     0.22148      -0.0010573   -0.0046215   
1.44         -0.001165    -0.0045906   -0.96486     0.24442      -0.96486     0.24442      -0.001165    -0.0045906   
1.45         -0.001271    -0.0045539   -0.95878     0.26722      -0.95878     0.26722      -0.001271    -0.0045539   
1.46         -0.0013749   -0.0045116   -0.95215     0.28987      -0.95215     0.28987      -0.0013749   -0.0045116   
1.47         -0.0014764   -0.0044636   -0.94499     0.31236      -0.94499     0.31236      -0.0014764   -0.0044636   
1.48         -0.0015754   -0.0044102   -0.9373      0.33468      -0.9373      0.33468      -0.0015754   -0.0044102   
1.49         -0.0016715   -0.0043516   -0.92908     0.35681      -0.92908     0.35681      -0.0016715   -0.0043516   
1.5          -0.0017645   -0.004288    -0.92033     0.37874      -0.92033     0.37874      -0.0017645   -0.004288    
1.51         -0.0018541   -0.0042194   -0.91107     0.40046      -0.91107     0.40046      -0.0018541   -0.0042194   
1.52         -0.0019402   -0.0041462   -0.90129     0.42195      -0.90129     0.42195      -0.0019402   -0.0041462   
1.53         -0.0020225   -0.0040685   -0.89101     0.44321      -0.89101     0.44321      -0.0020225   -0.0040685   
1.54         -0.0021008   -0.0039865   -0.88022     0.46422      -0.88022     0.46422      -0.0021008   -0.0039865   
1.55         -0.0021749   -0.0039006   -0.86894     0.48497      -0.86894     0.48497      -0.0021749   -0.0039006   
1.56         -0.0022447   -0.0038109   -0.85717     0.50544      -0.85717     0.50544      -0.0022447   -0.0038109   
1.57         -0.0023099   -0.0037176   -0.84491     0.52564      -0.84491     0.52564      -0.0023099   -0.0037176   
1.58         -0.0023706   -0.0036211   -0.83218     0.54553      -0.83218     0.54553      -0.0023706   -0.0036211   
1.59         -0.0024264   -0.0035216   -0.81897     0.56513      -0.81897     0.56513      -0.0024264   -0.0035216   
1.6          -0.0024773   -0.0034194   -0.80531     0.5844       -0.80531     0.5844       -0.0024773   -0.0034194   
1.61         -0.0025232   -0.0033147   -0.79119     0.60335      -0.79119     0.60335      -0.0025232   -0.0033147   
1.62         -0.0025641   -0.0032079   -0.77662     0.62195      -0.77662     0.62195      -0.0025641   -0.0032079   
1.63         -0.0025998   -0.0030991   -0.76161     0.64021      -0.76161     0.64021      -0.0025998   -0.0030991   
1.64         -0.0026302   -0.0029888   -0.74617     0.65811      -0.74617     0.65811      -0.0026302   -0.0029888   
1.65         -0.0026555   -0.0028772   -0.73031     0.67564      -0.73031     0.67564      -0.0026555   -0.0028772   
1.66         -0.0026755   -0.0027645   -0.71404     0.69278      -0.71404     0.69278      -0.0026755   -0.0027645   
1.67         -0.0026902   -0.0026511   -0.69737     0.70954      -0.69737     0.70954      -0.0026902   -0.0026511   
1.68         -0.0026997   -0.0025372   -0.68029     0.72589      -0.68029     0.72589      -0.0026997   -0.0025372   
1.69         -0.0027039   -0.0024232   -0.66284     0.74184      -0.66284     0.74184      -0.0027039   -0.0024232   
1.7          -0.002703    -0.0023093   -0.645       0.75737      -0.645       0.75737      -0.002703    -0.0023093   
1.71         -0.0026969   -0.0021957   -0.62681     0.77247      -0.62681     0.77247      -0.0026969   -0.0021957   
1.72         -0.0026858   -0.0020828   -0.60825     0.78714      -0.60825     0.78714      -0.0026858   -0.0020828   
1.73         -0.0026698   -0.0019709   -0.58936     0.80136      -0.58936     0.80136      -0.0026698   -0.0019709   
1.74         -0.0026489   -0.0018601   -0.57012     0.81513      -0.57012     0.81513      -0.0026489   -0.0018601   
1.75         -0.0026233   -0.0017508   -0.55057     0.82844      -0.55057     0.82844      -0.0026233   -0.0017508   
1.76         -0.0025931   -0.0016432   -0.5307      0.84129      -0.5307      0.84129      -0.0025931   -0.0016432   
1.77         -0.0025585   -0.0015374   -0.51053     0.85365      -0.51053     0.85365      -0.0025585   -0.0015374   
1.78         -0.0025195   -0.0014338   -0.49007     0.86554      -0.49007     0.86554      -0.0025195   -0.0014338   
1.79         -0.0024765   -0.0013326   -0.46933     0.87694      -0.46933     0.87694      -0.0024765   -0.0013326   
1.8          -0.0024295   -0.0012339   -0.44833     0.88784      -0.44833     0.88784      -0.0024295   -0.0012339   
1.81         -0.0023788   -0.001138    -0.42706     0.89823      -0.42706     0.89823      -0.0023788   -0.001138    
1.82         -0.0023246   -0.001045    -0.40556     0.90812      -0.40556     0.90812      -0.0023246   -0.001045    
1.83         -0.0022671   -0.00095515  -0.38383     0.9175       -0.38383     0.9175       -0.0022671   -0.00095515  
1.84         -0.0022064   -0.00086853  -0.36187     0.92636      -0.36187     0.92636      -0.0022064   -0.00086853  
1.85         -0.002143    -0.00078529  -0.33971     0.93469      -0.33971     0.93469      -0.002143    -0.00078529  
1.86         -0.0020769   -0.00070558  -0.31736     0.94249      -0.31736     0.94249      -0.0020769   -0.00070558  
1.87         -0.0020084   -0.0006295   -0.29483     0.94976      -0.29483     0.94976      -0.0020084   -0.0006295   
1.88         -0.0019378   -0.00055715  -0.27212     0.9565       -0.27212     0.9565       -0.0019378   -0.00055715  
1.89         -0.0018653   -0.00048861  -0.24926     0.96269      -0.24926     0.96269      -0.0018653   -0.00048861  
1.9          -0.0017912   -0.00042393  -0.22626     0.96833      -0.22626     0.96833      -0.0017912   -0.00042393  
1.91         -0.0017158   -0.00036318  -0.20313     0.97342      -0.20313     0.97342      -0.0017158   -0.00036318  
1.92         -0.0016393   -0.00030639  -0.17988     0.97797      -0.17988     0.97797      -0.0016393   -0.00030639  
1.93         -0.001562    -0.00025357  -0.15653     0.98196      -0.15653     0.98196      -0.001562    -0.00025357  
1.94         -0.0014841   -0.00020472  -0.13309     0.98539      -0.13309     0.98539      -0.0014841   -0.00020472  
1.95         -0.001406    -0.00015983  -0.10957     0.98826      -0.10957     0.98826      -0.001406    -0.00015983  
1.96         -0.0013278   -0.00011887  -0.085988    0.99057      -0.085988    0.99057      -0.0013278   -0.00011887  
1.97         -0.0012498   -8.1794e-05  -0.062356    0.99232      -0.062356    0.99232      -0.0012498   -8.1794e-05  
1.98         -0.0011724   -4.8534e-05  -0.038687    0.9935       -0.038687    0.9935       -0.0011724   -4.8534e-05  
1.99         -0.0010957   -1.9014e-05  -0.014994    0.99412      -0.014994    0.99412      -0.0010957   -1.9014e-05  
2            -0.00102     6.8593e-06   0.0087086    0.99418      0.0087086    0.99418      -0.00102     6.8593e-06   
2.01         -0.00094549  2.9194e-05   0.032408     0.99367      0.032408     0.99367      -0.00094549  2.9194e-05   
2.02         -0.00087247  4.8112e-05   0.05609      0.9926       0.05609      0.9926       -0.00087247  4.8112e-05   
2.03         -0.00080115  6.3753e-05   0.079741     0.99096      0.079741     0.99096      -0.00080115  6.3753e-05   
2.04         -0.00073173  7.6265e-05   0.10335      0.98875      0.10335      0.98875      -0.00073173  7.6265e-05   
2.05         -0.00066443  8.5813e-05   0.1269       0.98599      0.1269       0.98599      -0.00066443  8.5813e-05   
2.06         -0.00059943  9.2575e-05   0.15038      0.98266      0.15038      0.98266      -0.00059943  9.2575e-05   
2.07         -0.00053694  9.6738e-05   0.17377      0.97878      0.17377      0.97878      -0.00053694  9.6738e-05   
2.08         -0.00047711  9.8502e-05   0.19707      0.97433      0.19707      0.97433      -0.00047711  9.8502e-05   
2.09         -0.00042011  9.8079e-05   0.22026      0.96934      0.22026      0.96934      -0.00042011  9.8079e-05   
2.1          -0.00036609  9.569e-05    0.24332      0.96378      0.24332      0.96378      -0.00036609  9.569e-05    
2.11         -0.00031518  9.1563e-05   0.26625      0.95769      0.26625      0.95769      -0.00031518  9.1563e-05   
2.12         -0.0002675   8.5939e-05   0.28902      0.95104      0.28902      0.95104      -0.0002675   8.5939e-05   
2.13         -0.00022316  7.9062e-05   0.31163      0.94385      0.31163      0.94385      -0.00022316  7.9062e-05   
2.14         -0.00018225  7.1186e-05   0.33407      0.93613      0.33407      0.93613      -0.00018225  7.1186e-05   
2.15         -0.00014484  6.257e-05    0.35631      0.92787      0.35631      0.92787      -0.00014484  6.257e-05    
2.16         -0.00011098  5.3477e-05   0.37836      0.91908      0.37836      0.91908      -0.00011098  5.3477e-05   
2.17         -8.0724e-05  4.4176e-05   0.40019      0.90976      0.40019      0.90976      -8.0724e-05  4.4176e-05   
2.18         -5.4093e-05  3.4937e-05   0.42179      0.89993      0.42179      0.89993      -5.4093e-05  3.4937e-05   
2.19         -3.1095e-05  2.6033e-05   0.44316      0.88958      0.44316      0.88958      -3.1095e-05  2.6033e-05   
2.2          -1.1721e-05  1.7739e-05   0.46427      0.87873      0.46427      0.87873      -1.1721e-05  1.7739e-05   
2.21         4.0554e-06   1.0329e-05   0.48512      0.86737      0.48512      0.86737      4.0554e-06   1.0329e-05   
2.22         1.6277e-05   4.0767e-06   0.50569      0.85552      0.50569      0.85552      1.6277e-05   4.0767e-06   
2.23         2.5004e-05   -7.4549e-07  0.52598      0.84317      0.52598      0.84317      2.5004e-05   -7.4549e-07  
2.24         3.0314e-05   -3.8687e-06  0.54596      0.83035      0.54596      0.83035      3.0314e-05   -3.8687e-06  
2.25         3.2301e-05   -5.0276e-06  0.56564      0.81705      0.56564      0.81705      3.2301e-05   -5.0276e-06  
2.26         3.1077e-05   -3.9617e-06  0.58499      0.80328      0.58499      0.80328      3.1077e-05   -3.9617e-06  
2.27         2.6769e-05   -4.1628e-07  0.60401      0.78906      0.60401      0.78906      2.6769e-05   -4.1628e-07  
2.28         1.9522e-05   5.8567e-06   0.62269      0.77438      0.62269      0.77438      1.9522e-05   5.8567e-06   
2.29         9.4949e-06   1.5098e-05   0.64101      0.75926      0.64101      0.75926      9.4949e-06   1.5098e-05   
2.3          -3.1358e-06  2.7538e-05   0.65897      0.7437       0.65897      0.7437       -3.1358e-06  2.7538e-05   
2.31         -1.818e-05   4.3399e-05   0.67655      0.72772      0.67655      0.72772      -1.818e-05   4.3399e-05   
2.32         -3.5432e-05  6.2894e-05   0.69375      0.71132      0.69375      0.71132      -3.5432e-05  6.2894e-05   
2.33         -5.4673e-05  8.6222e-05   0.71055      0.69451      0.71055      0.69451      -5.4673e-05  8.6222e-05   
2.34         -7.567e-05   0.00011357   0.72694      0.6773       0.72694      0.6773       -7.567e-05   0.00011357   
2.35         -9.8177e-05  0.00014512   0.74292      0.65971      0.74292      0.65971      -9.8177e-05  0.00014512   
2.36         -0.00012194  0.00018102   0.75847      0.64173      0.75847      0.64173      -0.00012194  0.00018102   
2.37         -0.00014668  0.00022142   0.7736       0.62339      0.7736       0.62339      -0.00014668  0.00022142   
2.38         -0.00017213  0.00026646   0.78827      0.60469      0.78827      0.60469      -0.00017213  0.00026646   
2.39         -0.00019799  0.00031625   0.8025       0.58565      0.8025       0.58565      -0.00019799  0.00031625   
2.4          -0.00022397  0.00037089   0.81627      0.56626      0.81627      0.56626      -0.00022397  0.00037089   
2.41         -0.00024976  0.00043046   0.82958      0.54655      0.82958      0.54655      -0.00024976  0.00043046   
2.42         -0.00027505  0.00049502   0.84241      0.52653      0.84241      0.52653      -0.00027505  0.00049502   
2.43         -0.00029952  0.00056462   0.85475      0.5062       0.85475      0.5062       -0.00029952  0.00056462   
2.44         -0.00032284  0.00063929   0.86661      0.48559      0.86661      0.48559      -0.00032284  0.00063929   
2.45         -0.00034469  0.00071904   0.87797      0.46469      0.87797      0.46469      -0.00034469  0.00071904   
2.46         -0.00036474  0.00080385   0.88883      0.44352      0.88883      0.44352      -0.00036474  0.00080385   
2.47         -0.00038265  0.00089369   0.89918      0.4221       0.89918      0.4221       -0.00038265  0.00089369   
2.48         -0.00039808  0.00098851   0.90902      0.40044      0.90902      0.40044      -0.00039808  0.00098851   
2.49         -0.00041072  0.0010883    0.91833      0.37855      0.91833      0.37855      -0.00041072  0.0010883    
2.5          -0.00042022  0.0011928    0.92712      0.35643      0.92712      0.35643      -0.00042022  0.0011928    
2.51         -0.00042625  0.0013021    0.93537      0.33411      0.93537      0.33411      -0.00042625  0.0013021    
2.52         -0.0004285   0.0014159    0.94309      0.3116       0.94309      0.3116       -0.0004285   0.0014159    
2.53         -0.00042663  0.0015342    0.95027      0.28891      0.95027      0.28891      -0.00042663  0.0015342    
2.54         -0.00042034  0.0016568    0.9569       0.26605      0.9569       0.26605      -0.00042034  0.0016568    
2.55         -0.00040932  0.0017834    0.96298      0.24303      0.96298      0.24303      -0.00040932  0.0017834    
2.56         -0.00039326  0.0019139    0.96851      0.21988      0.96851      0.21988      -0.00039326  0.0019139    
2.57         -0.00037189  0.002048     0.97349      0.1966       0.97349      0.1966       -0.00037189  0.002048     
2.58         -0.00034491  0.0021856    0.9779       0.1732       0.9779       0.1732       -0.00034491  0.0021856    
2.59         -0.00031207  0.0023262    0.98176      0.1497       0.98176      0.1497       -0.00031207  0.0023262    
2.6          -0.0002731   0.0024698    0.98504      0.12611      0.98504      0.12611      -0.0002731   0.0024698    
2.61         -0.00022777  0.0026158    0.98777      0.10246      0.98777      0.10246      -0.00022777  0.0026158    
2.62         -0.00017585  0.0027642    0.98992      0.078735     0.98992      0.078735     -0.00017585  0.0027642    
2.63         -0.00011713  0.0029144    0.99151      0.054969     0.99151      0.054969     -0.00011713  0.0029144    
2.64         -5.1407e-05  0.0030662    0.99252      0.03117      0.99252      0.03117      -5.1407e-05  0.0030662    
2.65         2.1488e-05   0.0032192    0.99296      0.0073509    0.99296      0.0073509    2.1488e-05   0.0032192    
2.66         0.00010172   0.0033731    0.99284      -0.016473    0.99284      -0.016473    0.00010172   0.0033731    
2.67         0.00018942   0.0035274    0.99214      -0.04029     0.99214      -0.04029     0.00018942   0.0035274    
2.68         0.00028471   0.0036818    0.99086      -0.064084    0.99086      -0.064084    0.00028471   0.0036818    
2.69         0.0003877    0.0038359    0.98902      -0.087843    0.98902      -0.087843    0.0003877    0.0038359    
2.7          0.00049846   0.0039893    0.98661      -0.11155     0.98661      -0.11155     0.00049846   0.0039893    
2.71         0.00061704   0.0041415    0.98363      -0.1352      0.98363      -0.1352      0.00061704   0.0041415    
2.72         0.00074349   0.0042921    0.98008      -0.15877     0.98008      -0.15877     0.00074349   0.0042921    
2.73         0.0008778    0.0044407    0.97597      -0.18225     0.97597      -0.18225     0.0008778    0.0044407    
2.74         0.00102      0.0045868    0.9713       -0.20562     0.9713       -0.20562     0.00102      0.0045868    
2.75         0.00117      0.0047301    0.96606      -0.22888     0.96606      -0.22888     0.00117      0.0047301    
2.76         0.0013277    0.00487      0.96027      -0.25201     0.96027      -0.25201     0.0013277    0.00487      
2.77         0.0014932    0.0050062    0.95392      -0.275       0.95392      -0.275       0.0014932    0.0050062    
2.78         0.0016662    0.0051382    0.94702      -0.29782     0.94702      -0.29782     0.0016662    0.0051382    
2.79         0.0018467    0.0052655    0.93958      -0.32048     0.93958      -0.32048     0.0018467    0.0052655    
2.8          0.0020344    0.0053878    0.93159      -0.34295     0.93159      -0.34295     0.0020344    0.0053878    
2.81         0.0022292    0.0055045    0.92306      -0.36523     0.92306      -0.36523     0.0022292    0.0055045    
2.82         0.002431     0.0056154    0.914        -0.38729     0.914        -0.38729     0.002431     0.0056154    
2.83         0.0026393    0.0057199    0.90441      -0.40913     0.90441      -0.40913     0.0026393    0.0057199    
2.84         0.0028541    0.0058177    0.8943       -0.43074     0.8943       -0.43074     0.0028541    0.0058177    
2.85         0.0030751    0.0059083    0.88368      -0.4521      0.88368      -0.4521      0.0030751    0.0059083    
2.86         0.0033018    0.0059914    0.87254      -0.4732      0.87254      -0.4732      0.0033018    0.0059914    
2.87         0.0035341    0.0060666    0.86089      -0.49403     0.86089      -0.49403     0.0035341    0.0060666    
2.88         0.0037715    0.0061336    0.84875      -0.51458     0.84875      -0.51458     0.0037715    0.0061336    
2.89         0.0040137    0.006192     0.83612      -0.53482     0.83612      -0.53482     0.0040137    0.006192     
2.9          0.0042603    0.0062414    0.823        -0.55476     0.823        -0.55476     0.0042603    0.0062414    
2.91         0.0045109    0.0062817    0.80941      -0.57438     0.80941      -0.57438     0.0045109    0.0062817    
2.92         0.0047651    0.0063124    0.79534      -0.59367     0.79534      -0.59367     0.0047651    0.0063124    
2.93         0.0050224    0.0063334    0.78082      -0.61262     0.78082      -0.61262     0.0050224    0.0063334    
2.94         0.0052823    0.0063443    0.76584      -0.63121     0.76584      -0.63121     0.0052823    0.0063443    
2.95         0.0055444    0.006345     0.75042      -0.64944     0.75042      -0.64944     0.0055444    0.006345     
2.96         0.0058082    0.0063353    0.73457      -0.66729     0.73457      -0.66729     0.0058082    0.0063353    
2.97         0.0060732    0.0063149    0.71828      -0.68476     0.71828      -0.68476     0.0060732    0.0063149    
2.98         0.0063388    0.0062838    0.70159      -0.70183     0.70159      -0.70183     0.0063388    0.0062838    
2.99         0.0066046    0.0062418    0.68448      -0.71849     0.68448      -0.71849     0.0066046    0.0062418    
3            0.0068699    0.0061887    0.66698      -0.73475     0.66698      -0.73475     0.0068699    0.0061887    
